[0;1;34m+--------------------------------------------------------------------------------------------------+
|[0;1;33m                                       Dielectric Function                                        [0;1;34m|
+--------------------------------------------------------------------------------------------------+[0;0m
[1;31m ... [0;0mbands = 8
[1;31m ... [0;0minterband pairs = 56
[1;31m ... [0;0mtetrahedra = 148
[1;31m ... [0;0mlowest energy = -9.4986
[1;31m ... [0;0mhighest energy = 4.936
[1;31m ... [0;0mhighest - lowest = 14.435
[1;31m ... [0;0mprobing energies = 1444
[1;31m ... [0;0mlower energy range = 0
[1;31m ... [0;0mupper energy range = 14.43
[1;31m ... [0;0menergy increment dE = 1E-02
       0.07       0.14       0.21       0.28       0.35       0.42       0.48       0.55       0.62       0.69       0.76       0.83       0.90       0.97       1.04       1.11       1.18       1.25       1.32       1.39       1.45       1.52       1.59       1.66       1.73       1.80       1.87       1.94       2.01       2.08       2.15       2.22       2.29       2.35       2.42       2.49       2.56       2.63       2.70       2.77       2.84       2.91       2.98       3.05       3.12       3.19       3.25       3.32       3.39       3.46       3.53       3.60       3.67       3.74       3.81       3.88       3.95       4.02       4.09       4.16       4.22       4.29       4.36       4.43       4.50       4.57       4.64       4.71       4.78       4.85       4.92       4.99       5.06       5.12       5.19       5.26       5.33       5.40       5.47       5.54       5.61       5.68       5.75       5.82       5.89       5.96       6.02       6.09       6.16       6.23       6.30       6.37       6.44       6.51       6.58       6.65       6.72       6.79       6.86       6.93       6.99       7.06       7.13       7.20       7.27       7.34       7.41       7.48       7.55       7.62       7.69       7.76       7.83       7.89       7.96       8.03       8.10       8.17       8.24       8.31       8.38       8.45       8.52       8.59       8.66       8.73       8.80       8.86       8.93       9.00       9.07       9.14       9.21       9.28       9.35       9.42       9.49       9.56       9.63       9.70       9.76       9.83       9.90       9.97      10.04      10.11      10.18      10.25      10.32      10.39      10.46      10.53      10.60      10.66      10.73      10.80      10.87      10.94      11.01      11.08      11.15      11.22      11.29      11.36      11.43      11.50      11.57      11.63      11.70      11.77      11.84      11.91      11.98      12.05      12.12      12.19      12.26      12.33      12.40      12.47      12.53      12.60      12.67      12.74      12.81      12.88      12.95      13.02      13.09      13.16      13.23      13.30      13.37      13.43      13.50      13.57      13.64      13.71      13.78      13.85      13.92      13.99      14.06      14.13      14.20      14.27      14.34      14.40      14.47      14.54      14.61      14.68      14.75      14.82      14.89      14.96      15.03      15.10      15.17      15.24      15.30      15.37      15.44      15.51      15.58      15.65      15.72      15.79      15.86      15.93      16.00      16.07      16.14      16.20      16.27      16.34      16.41      16.48      16.55      16.62      16.69      16.76      16.83      16.90      16.97      17.04      17.11      17.17      17.24      17.31      17.38      17.45      17.52      17.59      17.66      17.73      17.80      17.87      17.94      18.01      18.07      18.14      18.21      18.28      18.35      18.42      18.49      18.56      18.63      18.70      18.77      18.84      18.91      18.98      19.04      19.11      19.18      19.25      19.32      19.39      19.46      19.53      19.60      19.67      19.74      19.81      19.88      19.94      20.01      20.08      20.15      20.22      20.29      20.36      20.43      20.50      20.57      20.64      20.71      20.78      20.84      20.91      20.98      21.05      21.12      21.19      21.26      21.33      21.40      21.47      21.54      21.61      21.68      21.75      21.81      21.88      21.95      22.02      22.09      22.16      22.23      22.30      22.37      22.44      22.51      22.58      22.65      22.71      22.78      22.85      22.92      22.99      23.06      23.13      23.20      23.27      23.34      23.41      23.48      23.55      23.61      23.68      23.75      23.82      23.89      23.96      24.03      24.10      24.17      24.24      24.31      24.38      24.45      24.52      24.58      24.65      24.72      24.79      24.86      24.93      25.00      25.07      25.14      25.21      25.28      25.35      25.42      25.48      25.55      25.62      25.69      25.76      25.83      25.90      25.97      26.04      26.11      26.18      26.25      26.32      26.39      26.45      26.52      26.59      26.66      26.73      26.80      26.87      26.94      27.01      27.08      27.15      27.22      27.29      27.35      27.42      27.49      27.56      27.63      27.70      27.77      27.84      27.91      27.98      28.05      28.12      28.19      28.25      28.32      28.39      28.46      28.53      28.60      28.67      28.74      28.81      28.88      28.95      29.02      29.09      29.16      29.22      29.29      29.36      29.43      29.50      29.57      29.64      29.71      29.78      29.85      29.92      29.99      30.06      30.12      30.19      30.26      30.33      30.40      30.47      30.54      30.61      30.68      30.75      30.82      30.89      30.96      31.02      31.09      31.16      31.23      31.30      31.37      31.44      31.51      31.58      31.65      31.72      31.79      31.86      31.93      31.99      32.06      32.13      32.20      32.27      32.34      32.41      32.48      32.55      32.62      32.69      32.76      32.83      32.89      32.96      33.03      33.10      33.17      33.24      33.31      33.38      33.45      33.52      33.59      33.66      33.73      33.80      33.86      33.93      34.00      34.07      34.14      34.21      34.28      34.35      34.42      34.49      34.56      34.63      34.70      34.76      34.83      34.90      34.97      35.04      35.11      35.18      35.25      35.32      35.39      35.46      35.53      35.60      35.66      35.73      35.80      35.87      35.94      36.01      36.08      36.15      36.22      36.29      36.36      36.43      36.50      36.57      36.63      36.70      36.77      36.84      36.91      36.98      37.05      37.12      37.19      37.26      37.33      37.40      37.47      37.53      37.60      37.67      37.74      37.81      37.88      37.95      38.02      38.09      38.16      38.23      38.30      38.37      38.43      38.50      38.57      38.64      38.71      38.78      38.85      38.92      38.99      39.06      39.13      39.20      39.27      39.34      39.40      39.47      39.54      39.61      39.68      39.75      39.82      39.89      39.96      40.03      40.10      40.17      40.24      40.30      40.37      40.44      40.51      40.58      40.65      40.72      40.79      40.86      40.93      41.00      41.07      41.14      41.20      41.27      41.34      41.41      41.48      41.55      41.62      41.69      41.76      41.83      41.90      41.97      42.04      42.11      42.17      42.24      42.31      42.38      42.45      42.52      42.59      42.66      42.73      42.80      42.87      42.94      43.01      43.07      43.14      43.21      43.28      43.35      43.42      43.49      43.56      43.63      43.70      43.77      43.84      43.91      43.98      44.04      44.11      44.18      44.25      44.32      44.39      44.46      44.53      44.60      44.67      44.74      44.81      44.88      44.94      45.01      45.08      45.15      45.22      45.29      45.36      45.43      45.50      45.57      45.64      45.71      45.78      45.84      45.91      45.98      46.05      46.12      46.19      46.26      46.33      46.40      46.47      46.54      46.61      46.68      46.75      46.81      46.88      46.95      47.02      47.09      47.16      47.23      47.30      47.37      47.44      47.51      47.58      47.65      47.71      47.78      47.85      47.92      47.99      48.06      48.13      48.20      48.27      48.34      48.41      48.48      48.55      48.61      48.68      48.75      48.82      48.89      48.96      49.03      49.10      49.17      49.24      49.31      49.38      49.45      49.52      49.58      49.65      49.72      49.79      49.86      49.93      50.00      50.07      50.14      50.21      50.28      50.35      50.42      50.48      50.55      50.62      50.69      50.76      50.83      50.90      50.97      51.04      51.11      51.18      51.25      51.32      51.39      51.45      51.52      51.59      51.66      51.73      51.80      51.87      51.94      52.01      52.08      52.15      52.22      52.29      52.35      52.42      52.49      52.56      52.63      52.70      52.77      52.84      52.91      52.98      53.05      53.12      53.19      53.25      53.32      53.39      53.46      53.53      53.60      53.67      53.74      53.81      53.88      53.95      54.02      54.09      54.16      54.22      54.29      54.36      54.43      54.50      54.57      54.64      54.71      54.78      54.85      54.92      54.99      55.06      55.12      55.19      55.26      55.33      55.40      55.47      55.54      55.61      55.68      55.75      55.82      55.89      55.96      56.02      56.09      56.16      56.23      56.30      56.37      56.44      56.51      56.58      56.65      56.72      56.79      56.86      56.93      56.99      57.06      57.13      57.20      57.27      57.34      57.41      57.48      57.55      57.62      57.69      57.76      57.83      57.89      57.96      58.03      58.10      58.17      58.24      58.31      58.38      58.45      58.52      58.59      58.66      58.73      58.80      58.86      58.93      59.00      59.07      59.14      59.21      59.28      59.35      59.42      59.49      59.56      59.63      59.70      59.76      59.83      59.90      59.97      60.04      60.11      60.18      60.25      60.32      60.39      60.46      60.53      60.60      60.66      60.73      60.80      60.87      60.94      61.01      61.08      61.15      61.22      61.29      61.36      61.43      61.50      61.57      61.63      61.70      61.77      61.84      61.91      61.98      62.05      62.12      62.19      62.26      62.33      62.40      62.47      62.53      62.60      62.67      62.74      62.81      62.88      62.95      63.02      63.09      63.16      63.23      63.30      63.37      63.43      63.50      63.57      63.64      63.71      63.78      63.85      63.92      63.99      64.06      64.13      64.20      64.27      64.34      64.40      64.47      64.54      64.61      64.68      64.75      64.82      64.89      64.96      65.03      65.10      65.17      65.24      65.30      65.37      65.44      65.51      65.58      65.65      65.72      65.79      65.86      65.93      66.00      66.07      66.14      66.20      66.27      66.34      66.41      66.48      66.55      66.62      66.69      66.76      66.83      66.90      66.97      67.04      67.11      67.17      67.24      67.31      67.38      67.45      67.52      67.59      67.66      67.73      67.80      67.87      67.94      68.01      68.07      68.14      68.21      68.28      68.35      68.42      68.49      68.56      68.63      68.70      68.77      68.84      68.91      68.98      69.04      69.11      69.18      69.25      69.32      69.39      69.46      69.53      69.60      69.67      69.74      69.81      69.88      69.94      70.01      70.08      70.15      70.22      70.29      70.36      70.43      70.50      70.57      70.64      70.71      70.78      70.84      70.91      70.98      71.05      71.12      71.19      71.26      71.33      71.40      71.47      71.54      71.61      71.68      71.75      71.81      71.88      71.95      72.02      72.09      72.16      72.23      72.30      72.37      72.44      72.51      72.58      72.65      72.71      72.78      72.85      72.92      72.99      73.06      73.13      73.20      73.27      73.34      73.41      73.48      73.55      73.61      73.68      73.75      73.82      73.89      73.96      74.03      74.10      74.17      74.24      74.31      74.38      74.45      74.52      74.58      74.65      74.72      74.79      74.86      74.93      75.00      75.07      75.14      75.21      75.28      75.35      75.42      75.48      75.55      75.62      75.69      75.76      75.83      75.90      75.97      76.04      76.11      76.18      76.25      76.32      76.39      76.45      76.52      76.59      76.66      76.73      76.80      76.87      76.94      77.01      77.08      77.15      77.22      77.29      77.35      77.42      77.49      77.56      77.63      77.70      77.77      77.84      77.91      77.98      78.05      78.12      78.19      78.25      78.32      78.39      78.46      78.53      78.60      78.67      78.74      78.81      78.88      78.95      79.02      79.09      79.16      79.22      79.29      79.36      79.43      79.50      79.57      79.64      79.71      79.78      79.85      79.92      79.99      80.06      80.12      80.19      80.26      80.33      80.40      80.47      80.54      80.61      80.68      80.75      80.82      80.89      80.96      81.02      81.09      81.16      81.23      81.30      81.37      81.44      81.51      81.58      81.65      81.72      81.79      81.86      81.93      81.99      82.06      82.13      82.20      82.27      82.34      82.41      82.48      82.55      82.62      82.69      82.76      82.83      82.89      82.96      83.03      83.10      83.17      83.24      83.31      83.38      83.45      83.52      83.59      83.66      83.73      83.80      83.86      83.93      84.00      84.07      84.14      84.21      84.28      84.35      84.42      84.49      84.56      84.63      84.70      84.76      84.83      84.90      84.97      85.04      85.11      85.18      85.25      85.32      85.39      85.46      85.53      85.60      85.66      85.73      85.80      85.87      85.94      86.01      86.08      86.15      86.22      86.29      86.36      86.43      86.50      86.57      86.63      86.70      86.77      86.84      86.91      86.98      87.05      87.12      87.19      87.26      87.33      87.40      87.47      87.53      87.60      87.67      87.74      87.81      87.88      87.95      88.02      88.09      88.16      88.23      88.30      88.37      88.43      88.50      88.57      88.64      88.71      88.78      88.85      88.92      88.99      89.06      89.13      89.20      89.27      89.34      89.40      89.47      89.54      89.61      89.68      89.75      89.82      89.89      89.96      90.03      90.10      90.17      90.24      90.30      90.37      90.44      90.51      90.58      90.65      90.72      90.79      90.86      90.93      91.00      91.07      91.14      91.20      91.27      91.34      91.41      91.48      91.55      91.62      91.69      91.76      91.83      91.90      91.97      92.04      92.11      92.17      92.24      92.31      92.38      92.45      92.52      92.59      92.66      92.73      92.80      92.87      92.94      93.01      93.07      93.14      93.21      93.28      93.35      93.42      93.49      93.56      93.63      93.70      93.77      93.84      93.91      93.98      94.04      94.11      94.18      94.25      94.32      94.39      94.46      94.53      94.60      94.67      94.74      94.81      94.88      94.94      95.01      95.08      95.15      95.22      95.29      95.36      95.43      95.50      95.57      95.64      95.71      95.78      95.84      95.91      95.98      96.05      96.12      96.19      96.26      96.33      96.40      96.47      96.54      96.61      96.68      96.75      96.81      96.88      96.95      97.02      97.09      97.16      97.23      97.30      97.37      97.44      97.51      97.58      97.65      97.71      97.78      97.85      97.92      97.99      98.06      98.13      98.20      98.27      98.34      98.41      98.48      98.55      98.61      98.68      98.75      98.82      98.89      98.96      99.03      99.10      99.17      99.24      99.31      99.38      99.45      99.52      99.58      99.65      99.72      99.79      99.86      99.93     100.00 [1;31m ... [0;0mjoint density of states
 [1;31m ... [0;0mdegauss = 0.1
